# Poly(methyl methacrylate) (PMMA)
# plexiglass, acrylic, perspex, lucite
# C5O2H8
# density 1.19 g/cm^3 http://en.wikipedia.org/wiki/Acrylic_glass
# Z=1: 0.080541
# Z=6: 0.599846
# Z=8: 0.319613
# http://physics.nist.gov/cgi-bin/Xcom/xcom2
#
# Photon Energy MeV, Tot. w/ Coherent cm^2/g

1.000E-03 2.79E+03 
1.500E-03 9.15E+02 
2.000E-03 4.04E+02 
3.000E-03 1.24E+02 
4.000E-03 5.25E+01 
5.000E-03 2.68E+01 
6.000E-03 1.55E+01 
8.000E-03 6.49E+00 
1.000E-02 3.36E+00 
1.500E-02 1.10E+00 
2.000E-02 5.71E-01 
3.000E-02 3.03E-01 
4.000E-02 2.35E-01 
5.000E-02 2.07E-01 
6.000E-02 1.92E-01 
8.000E-02 1.75E-01 
1.000E-01 1.64E-01 
1.500E-01 1.46E-01 
2.000E-01 1.33E-01 
3.000E-01 1.15E-01 
4.000E-01 1.03E-01 
5.000E-01 9.41E-02 
6.000E-01 8.70E-02 
8.000E-01 7.64E-02 
1.000E+00 6.87E-02 
1.022E+00 6.80E-02 
1.250E+00 6.14E-02 
1.500E+00 5.59E-02 
2.000E+00 4.80E-02 
2.044E+00 4.74E-02 
3.000E+00 3.84E-02 
4.000E+00 3.29E-02 
5.000E+00 2.92E-02 
6.000E+00 2.66E-02 
7.000E+00 2.47E-02 
8.000E+00 2.32E-02 
9.000E+00 2.20E-02 
1.000E+01 2.11E-02 
1.100E+01 2.03E-02 
1.200E+01 1.96E-02 
1.300E+01 1.91E-02 
1.400E+01 1.86E-02 
1.500E+01 1.82E-02 
1.600E+01 1.78E-02 
1.800E+01 1.73E-02 
2.000E+01 1.68E-02 
2.200E+01 1.65E-02 
2.400E+01 1.62E-02 
2.600E+01 1.60E-02 
2.800E+01 1.58E-02 
3.000E+01 1.57E-02 
4.000E+01 1.53E-02 
5.000E+01 1.51E-02 
6.000E+01 1.51E-02 
8.000E+01 1.53E-02 
1.000E+02 1.54E-02 
1.500E+02 1.59E-02 
2.000E+02 1.62E-02 
3.000E+02 1.68E-02 
4.000E+02 1.71E-02 
5.000E+02 1.73E-02 
6.000E+02 1.75E-02 
8.000E+02 1.78E-02 
1.000E+03 1.79E-02 
1.500E+03 1.82E-02 
2.000E+03 1.84E-02 
3.000E+03 1.85E-02 
4.000E+03 1.86E-02 
5.000E+03 1.87E-02 
6.000E+03 1.87E-02 
8.000E+03 1.88E-02 
1.000E+04 1.88E-02 
1.500E+04 1.89E-02 
2.000E+04 1.89E-02 
3.000E+04 1.89E-02 
4.000E+04 1.89E-02 
5.000E+04 1.89E-02 
6.000E+04 1.89E-02 
8.000E+04 1.89E-02 
1.000E+05 1.90E-02 
